   emu(eV)      n(10^20/cm3)               DOS            intDOS       tau(1E-14s)         |vk|(m/s)        sigma(S/m)       ke(Wm-1K-1)      L(1E-8V2K-2)           S(uV/K)   PF(1E-4Wm-1K-2)
  -3.00000    -1994.7516         1.1416833         13.690276         3.8504612         501011.14         11315988.         175.21824         1.9355165         43.149537         210.69040    
  -2.99000    -1992.5554         1.1285354         13.701627         3.8670892         497036.55         11056214.         169.88499         1.9206958         45.398261         227.86880    
  -2.98000    -1990.3845         1.1155156         13.712847         3.8827617         492830.31         10788334.         164.48379         1.9058063         47.755942         246.04197    
  -2.97000    -1988.2387         1.1025826         13.723938         3.8974396         488391.26         10512477.         159.02599         1.8909197         50.227938         265.21357    
  -2.96000    -1986.1178         1.0896879         13.734899         3.9110881         483719.75         10228820.         153.52408         1.8761215         52.819653         285.37546    
  -2.95000    -1984.0220         1.0767756         13.745731         3.9236765         478817.85         9937594.8         147.99164         1.8615124         55.536452         306.50498    
  -2.94000    -1981.9512         1.0637815         13.756434         3.9351792         473689.62         9639092.5         142.44331         1.8472085         58.383589         328.56230    
  -2.93000    -1979.9056         1.0506332         13.767007         3.9455759         468341.32         9333674.2         136.89462         1.8333432         61.366154         351.48796    
  -2.92000    -1977.8857         1.0372496         13.777446         3.9548521         462781.62         9021775.5         131.36200         1.8200686         64.489023         375.20068    
  -2.91000    -1975.8920         1.0235404         13.787750         3.9629988         457021.86         8703911.1         125.86273         1.8075600         67.756802         399.59518    
  -2.90000    -1973.9253         1.0094066         13.797916         3.9700129         451076.19         8380676.5         120.41502         1.7960217         71.173725         424.53985    
  -2.89000    -1971.9863        0.99474072         13.807937         3.9758968         444961.68         8052750.9         115.03808         1.7856953         74.743470         449.87388    
  -2.88000    -1970.0764        0.97942798         13.817808         3.9806578         438698.36         7720898.9         109.75219         1.7768687         78.468888         475.40403    
  -2.87000    -1968.1968        0.96334860         13.827523         3.9843076         432309.16         7385973.3         104.57871         1.7698870         82.351625         500.90121    
  -2.86000    -1966.3491        0.94638111         13.837072         3.9868618         425819.77         7048918.1         99.539936         1.7651634         86.391664         526.09739    
  -2.85000    -1964.5353        0.92840676         13.846447         3.9883378         419258.41         6710771.0         94.658965         1.7631909         90.586786         550.68357    
  -2.84000    -1962.7572        0.90931499         13.855637         3.9887543         412655.47         6372662.4         89.959376         1.7645564         94.931973         574.30940    
  -2.83000    -1961.0173        0.88900961         13.864629         3.9881285         406043.15         6035811.8         85.464951         1.7699556         99.418742         596.58485    
  -2.82000    -1959.3179        0.86741543         13.873413         3.9864750         399454.95         5701518.6         81.199361         1.7802135         104.03440         617.08428    
  -2.81000    -1957.6616        0.84448495         13.881973         3.9838024         392925.23         5371147.3         77.185871         1.7963078         108.76118         635.35270    
  -2.80000    -1956.0509        0.82020460         13.890298         3.9801114         386488.75         5046108.9         73.447079         1.8193989         113.57521         650.91413    
  -2.79000    -1954.4885        0.79459994         13.898373         3.9753914         380180.31         4727837.6         70.004642         1.8508631         118.44529         663.28187    
  -2.78000    -1952.9769        0.76773944         13.906186         3.9696181         374034.55         4417764.4         66.878991         1.8923313         123.33144         671.97043    
  -2.77000    -1951.5184        0.73973615         13.913724         3.9627498         368086.04         4117290.4         64.088951         1.9457260         128.18319         676.50913    
  -2.76000    -1950.1150        0.71074703         13.920977         3.9547246         362369.55         3827758.3         61.651256         2.0132951         132.93765         676.45744    
  -2.75000    -1948.7685        0.68096976         13.927936         3.9454567         356920.71         3550425.8         59.579881         2.0976315         137.51741         671.42235    
  -2.74000    -1947.4803        0.65063725         13.934595         3.9348334         351776.85         3286440.0         57.885150         2.2016662         141.82850         661.07798    
  -2.73000    -1946.2510        0.62001009         13.940948         3.9227119         346978.10         3036813.8         56.572589         2.3286161         145.75851         645.18756    
  -2.72000    -1945.0811        0.58936756         13.946995         3.9089163         342568.47         2802406.5         55.641502         2.4818625         149.17540         623.62796    
  -2.71000    -1943.9702        0.55899796         13.952736         3.8932349         338596.77         2583906.9         55.083279         2.6647283         151.92746         596.41620    
  -2.70000    -1942.9176        0.52918889         13.958176         3.8754200         335117.25         2381821.2         54.879533         2.8801245         153.84508         563.73676    
  -2.69000    -1941.9219        0.50021810         13.963323         3.8551875         332189.37         2196465.3         55.000206         3.1300407         154.74525         525.96763    
  -2.68000    -1940.9812        0.47234541         13.968185         3.8322213         329876.80         2027962.3         55.401934         3.4148770         154.43961         483.70129    
  -2.67000    -1940.0932        0.44580604         13.972774         3.8061800         328245.04         1876244.9         56.027073         3.7326600         152.74645         437.75568    
  -2.66000    -1939.2551        0.42080547         13.977106         3.7767091         327357.71         1741063.1         56.803862         4.0782455         149.50712         389.16901    
  -2.65000    -1938.4637        0.39751596         13.981196         3.7434586         327271.36         1621996.7         57.648268         4.4426932         144.60553         339.17182    
  -2.64000    -1937.7156        0.37607468         13.985062         3.7061063         328029.22         1518471.6         58.467878         4.8130532         137.98906         289.13189    
  -2.63000    -1937.0072        0.35658328         13.988724         3.6643865         329654.27         1429780.8         59.167916         5.1728136         129.68713         240.47130    
  -2.62000    -1936.3345        0.33910895         13.992201         3.6181207         332142.67         1355106.6         59.658951         5.5031602         119.82348         194.56168    
  -2.61000    -1935.6936        0.32368651         13.995513         3.5672489         335458.62         1293545.6         59.865269         5.7849980         108.61791         152.61057    
  -2.60000    -1935.0806        0.31032166         13.998681         3.5118559         339531.73         1244133.0         59.732483         6.0014165         96.375345         115.55765    
  -2.59000    -1934.4915        0.29899487         14.001726         3.4521871         344257.74         1205867.6         59.232846         6.1400652         83.462279         84.000159    
  -2.58000    -1933.9223        0.28966578         14.004668         3.3886515         349502.88         1177733.8         58.367124         6.1948551         70.274347         58.162196    
  -2.57000    -1933.3693        0.28227788         14.007526         3.3218077         355111.48         1158722.7         57.162704         6.1665644         57.200723         37.912511    
  -2.56000    -1932.8288        0.27676310         14.010320         3.2523341         360915.77         1147849.1         55.668455         6.0622577         44.591819         22.824179    
  -2.55000    -1932.2972        0.27304627         14.013067         3.1809871         366746.51         1144166.4         53.947574         5.8937642         32.735384         12.260948    
  -2.54000    -1931.7711        0.27104911         14.015786         3.1085522         372443.06         1146777.7         52.069903         5.6756754         21.843579         5.4717575    
  -2.53000    -1931.2472        0.27069378         14.018494         3.0357956         377861.51         1154843.8         50.104999         5.4233523         12.050830         1.6770931    
  -2.52000    -1930.7226        0.27190576         14.021205         2.9634216         382880.38         1167588.5         48.116804         5.1513016         3.4202268        0.13658393    
  -2.51000    -1930.1941        0.27461632         14.023937         2.8920415         387403.48         1184301.0         46.160211         4.8720943        -4.0446963        0.19374654    
  -2.50000    -1929.6590        0.27876434         14.026702         2.8221544         391360.31         1204336.9         44.279414         4.5958291        -10.385900         1.2990812    
  -2.49000    -1929.1145        0.28429770         14.029517         2.7541418         394704.55         1227116.9         42.507669         4.3300346        -15.676904         3.0158278    
  -2.48000    -1928.5580        0.29117429         14.032393         2.6882713         397411.19         1252124.9         40.868029         4.0798675        -20.010475         5.0137472    
  -2.47000    -1927.9869        0.29936260         14.035345         2.6247089         399472.99         1278905.3         39.374630         3.8484700        -23.488654         7.0559363    
  -2.46000    -1927.3987        0.30884209         14.038384         2.5635353         400896.85         1307059.5         38.034210         3.6373833        -26.215241         8.9826203    
  -2.45000    -1926.7910        0.31960326         14.041526         2.5047636         401700.35         1336241.5         36.847652         3.4469492        -28.290522         10.694657    
  -2.44000    -1926.1611        0.33164750         14.044781         2.4483562         401908.66         1366154.0         35.811410         3.2766629        -29.807884         12.138414    
  -2.43000    -1925.5068        0.34498677         14.048163         2.3942403         401552.03         1396543.2         34.918758         3.1254634        -30.851908         13.292860    
  -2.42000    -1924.8253        0.35964324         14.051685         2.3423204         400663.72         1427193.5         34.160828         2.9919584        -31.497577         14.159149    
  -2.41000    -1924.1142        0.37564889         14.055360         2.2924872         399278.42         1457922.5         33.527442         2.8745906        -31.810251         14.752602    
  -2.40000    -1923.3708        0.39304532         14.059203         2.2446253         397430.98         1488576.3         33.007754         2.7717552        -31.846148         15.096801    
  -2.39000    -1922.5923        0.41188360         14.063226         2.1986181         395155.54         1519025.1         32.590712         2.6818773        -31.653094         15.219392    
  -2.38000    -1921.7760        0.43222445         14.067445         2.1543516         392484.79         1549159.0         32.265397         2.6034607        -31.271393         15.149226    
  -2.37000    -1920.9188        0.45413858         14.071876         2.1117166         389449.53         1578885.0         32.021251         2.5351158        -30.734695         14.914488    
  -2.36000    -1920.0175        0.47770728         14.076534         2.0706105         386078.25         1608123.6         31.848234         2.4755741        -30.070838         14.541543    
  -2.35000    -1919.0691        0.50302311         14.081436         2.0309389         382397.00         1636805.9         31.736933         2.4236940        -29.302619         14.054328    
  -2.34000    -1918.0698        0.53019084         14.086600         1.9926160         378429.19         1664870.7         31.678636         2.3784606        -28.448536         13.474118    
  -2.33000    -1917.0161        0.55932844         14.092046         1.9555649         374195.68         1692262.3         31.665372         2.3389822        -27.523465         12.819583    
  -2.32000    -1915.9041        0.59056826         14.097794         1.9197178         369714.89         1718928.0         31.689926         2.3044833        -26.539312         12.107013    
  -2.31000    -1914.7294        0.62405826         14.103865         1.8850162         365003.01         1744816.6         31.745829         2.2742955        -25.505592         11.350647    
  -2.30000    -1913.4876        0.65996326         14.110283         1.8514103         360074.33         1769877.8         31.827317         2.2478471        -24.429939         10.563018    
  -2.29000    -1912.1739        0.69846623         14.117073         1.8188589         354941.63         1794060.9         31.929283         2.2246516        -23.318529         9.7552743    
  -2.28000    -1910.7830        0.73976930         14.124262         1.7873286         349616.61         1817315.4         32.047217         2.2042966        -22.176420         8.9374405    
  -2.27000    -1909.3093        0.78409475         14.131878         1.7567936         344110.34         1839590.8         32.177142         2.1864334        -21.007808         8.1186291    
  -2.26000    -1907.7467        0.83168545         14.139954         1.7272346         338433.69         1860836.9         32.315567         2.1707684        -19.816237         7.3071944    
  -2.25000    -1906.0887        0.88280505         14.148524         1.6986378         332597.80         1881004.1         32.459428         2.1570546        -18.604753         6.5108477    
  -2.24000    -1904.3281        0.93773761         14.157623         1.6709940         326614.40         1900043.8         32.606048         2.1450853        -17.376035         5.7367373    
  -2.23000    -1902.4573        0.99678666         14.167292         1.6442970         320496.15         1917909.0         32.753092         2.1346875        -16.132495         4.9915003    
  -2.22000    -1900.4680         1.0602735         14.177574         1.6185430         314256.90         1934554.7         32.898530         2.1257172        -14.876359         4.2812868    
  -2.21000    -1898.3514         1.1285347         14.188514         1.5937284         307911.85         1949938.4         33.040604         2.1180543        -13.609723         3.6117646    
  -2.20000    -1896.0977         1.2019189         14.200161         1.5698497         301477.64         1964020.6         33.177792         2.1115991        -12.334600         2.9881072    
  -2.19000    -1893.6968         1.2807821         14.212570         1.5469014         294972.32         1976765.3         33.308786         2.1062683        -11.052955         2.4149711    
  -2.18000    -1891.1377         1.3654827         14.225797         1.5248755         288415.27         1988141.0         33.432460         2.1019926        -9.7667253         1.8964663    
  -2.17000    -1888.4089         1.4563745         14.239901         1.5037608         281827.06         1998120.2         33.547849         2.0987131        -8.4778314         1.4361215    
  -2.16000    -1885.4979         1.5537995         14.254946         1.4835415         275229.13         2006681.2         33.654117         2.0963792        -7.1881691         1.0368477    
  -2.15000    -1882.3918         1.6580796         14.270999         1.4641974         268643.53         2013807.2         33.750547         2.0949465        -5.8995810        0.70090672    
  -2.14000    -1879.0771         1.7695074         14.288131         1.4457036         262092.47         2019487.5         33.836518         2.0943753        -4.6138103        0.42989326    
  -2.13000    -1875.5396         1.8883376         14.306414         1.4280300         255597.92         2023716.8         33.911516         2.0946308        -3.3324472        0.22473789    
  -2.12000    -1871.7650         2.0147782         14.325923         1.4111416         249181.07         2026495.1         33.975138         2.0956835        -2.0568805        0.85736087E-01
  -2.11000    -1867.7381         2.1489835         14.346736         1.3949992         242861.86         2027826.7         34.027122         2.0975117       -0.78826701        0.12600203E-01
  -2.10000    -1863.4441         2.2910492         14.368929         1.3795596         236658.46         2027719.7         34.067376         2.1001039        0.47247148        0.45264643E-02
  -2.09000    -1858.8675         2.4410101         14.392583         1.3647768         230586.84         2026184.7         34.096015         2.1034617         1.7246221        0.60265243E-01
  -2.08000    -1853.9931         2.5988422         14.417776         1.3506027         224660.32         2023234.2         34.113400         2.1076033         2.9676239        0.17818201    
  -2.07000    -1848.8059         2.7644682         14.444586         1.3369888         218889.35         2018881.5         34.120177         2.1125668         4.2009803        0.35629696    
  -2.06000    -1843.2907         2.9377676         14.473091         1.3238867         213281.25         2013140.2         34.117310         2.1184137         5.4241381        0.59229148    
  -2.05000    -1837.4329         3.1185902         14.503366         1.3112503         207840.25         2006023.4         34.106119         2.1252319         6.6363276        0.88346965    
  -2.04000    -1831.2181         3.3067711         14.535487         1.2990366         202567.54         1997544.2         34.088301         2.1331380         7.8363621         1.2266634    
  -2.03000    -1824.6322         3.5021477         14.569526         1.2872073         197461.60         1987715.6         34.065937         2.1422794         9.0223990         1.6180737    
  -2.02000    -1817.6614         3.7045729         14.605553         1.2757293         192518.61         1976551.8         34.041484         2.1528328         10.191676         2.0530495    
  -2.01000    -1810.2923         3.9139258         14.643640         1.2645759         187733.03         1964069.8         34.017728         2.1650025         11.340243         2.5258156    
  -2.00000    -1802.5115         4.1301136         14.683855         1.2537273         183098.29         1950292.2         33.997719         2.1790144         12.462713         3.0291787    
  -1.99000    -1794.3058         4.3530657         14.726265         1.2431701         178607.58         1935249.6         33.984680         2.1951096         13.552066         3.5542501    
  -1.98000    -1785.6623         4.5827163         14.770938         1.2328978         174254.53         1918983.8         33.981893         2.2135344         14.599510         4.0902315    
