   emu(eV)      n(10^20/cm3)               DOS            intDOS            DOSvk2         |vk|(m/s)             sigma                ke      L(1E-8V2K-2)           S(uV/K)                PF  EFF(10^-20 W^5/3 m s^-1/3 K^-2)
  -3.00000    -1994.7516         1.1416833         13.690276        0.21688374E+12     435853.64        0.22410827E+21    0.38146227E+16     2.1276672         46.588060         48.641520         1.8225865    
  -2.99000    -1992.5554         1.1285354         13.701627        0.21167515E+12     433089.18        0.21872618E+21    0.36994389E+16     2.1141953         48.175405         50.763494         1.9168412    
  -2.98000    -1990.3845         1.1155156         13.712847        0.20640555E+12     430152.90        0.21328105E+21    0.35839741E+16     2.1004996         49.859880         53.021831         2.0176650    
  -2.97000    -1988.2387         1.1025826         13.723938        0.20107252E+12     427042.20        0.20777037E+21    0.34684470E+16     2.0867069         51.647072         55.421086         2.1254247    
  -2.96000    -1986.1178         1.0896879         13.734899        0.19567401E+12     423755.65        0.20219203E+21    0.33531001E+16     2.0729675         53.542429         57.964245         2.2404583    
  -2.95000    -1984.0220         1.0767756         13.745731        0.19020853E+12     420293.23        0.19654450E+21    0.32382008E+16     2.0594578         55.551175         60.652316         2.3630633    
  -2.94000    -1981.9512         1.0637815         13.756434        0.18467527E+12     416656.49        0.19082692E+21    0.31240421E+16     2.0463846         57.678220         63.483860         2.4934833    
  -2.93000    -1979.9056         1.0506332         13.767007        0.17907421E+12     412848.73        0.18503928E+21    0.30109444E+16     2.0339900         59.928051         66.454476         2.6318931    
  -2.92000    -1977.8857         1.0372496         13.777446        0.17340628E+12     408875.21        0.17918255E+21    0.28992572E+16     2.0225583         62.304591         69.556193         2.7783806    
  -2.91000    -1975.8920         1.0235404         13.787750        0.16767348E+12     404743.33        0.17325879E+21    0.27893624E+16     2.0124249         64.810994         72.776747         2.9329237    
  -2.90000    -1973.9253         1.0094066         13.797916        0.16187904E+12     400462.86        0.16727133E+21    0.26816776E+16     2.0039877         67.449366         76.098704         3.0953608    
  -2.89000    -1971.9863        0.99474072         13.807937        0.15602756E+12     396046.07        0.16122493E+21    0.25766582E+16     1.9977200         70.220380         79.498430         3.2653524    
  -2.88000    -1970.0764        0.97942798         13.817808        0.15012522E+12     391507.94        0.15512598E+21    0.24748001E+16     1.9941857         73.122770         82.944923         3.4423332    
  -2.87000    -1968.1968        0.96334860         13.827523        0.14418000E+12     386866.19        0.14898272E+21    0.23766392E+16     1.9940560         76.152706         86.398578         3.6254539    
  -2.86000    -1966.3491        0.94638111         13.837072        0.13820193E+12     382141.34        0.14280552E+21    0.22827499E+16     1.9981282         79.303042         89.810000         3.8135147    
  -2.85000    -1964.5353        0.92840676         13.846447        0.13220330E+12     377356.65        0.13660708E+21    0.21937408E+16     2.0073455         82.562440         93.118986         4.0048920    
  -2.84000    -1962.7572        0.90931499         13.855637        0.12619887E+12     372537.99        0.13040264E+21    0.21102489E+16     2.0228204         85.914364         96.253812         4.1974591    
  -2.83000    -1961.0173        0.88900961         13.864629        0.12020598E+12     367713.69        0.12421011E+21    0.20329322E+16     2.0458602         89.335937         99.130969         4.3885039    
  -2.82000    -1959.3179        0.86741543         13.873413        0.11424456E+12     362914.39        0.11805012E+21    0.19624605E+16     2.0779951         92.796619         101.65546         4.5746450    
  -2.81000    -1957.6616        0.84448495         13.881973        0.10833711E+12     358172.85        0.11194588E+21    0.18995044E+16     2.1210074         96.256700         103.72180         4.7517497    
  -2.80000    -1956.0509        0.82020460         13.890298        0.10250846E+12     353523.88        0.10592308E+21    0.18447220E+16     2.1769594         99.665591         105.21583         4.9148591    
  -2.79000    -1954.4885        0.79459994         13.898373        0.96785507E+11     349004.40        0.10000949E+21    0.17987405E+16     2.2482122         102.95992         106.01751         5.0581304    
  -2.78000    -1952.9769        0.76773944         13.906186        0.91196789E+11     344653.62        0.94234610E+20    0.17621337E+16     2.3374290         106.06149         106.00489         5.1748143    
  -2.77000    -1951.5184        0.73973615         13.913724        0.85771998E+11     340513.51        0.88629117E+20    0.17353909E+16     2.4475462         108.87529         105.05944         5.2572902    
  -2.76000    -1950.1150        0.71074703         13.920977        0.80541401E+11     336629.42        0.83224285E+20    0.17188768E+16     2.5816935         111.28771         103.07290         5.2971945    
  -2.75000    -1948.7685        0.68096976         13.927936        0.75535186E+11     333051.00        0.78051310E+20    0.17127812E+16     2.7430372         113.16549         99.955850         5.2856829    
  -2.74000    -1947.4803        0.65063725         13.934595        0.70782773E+11     329833.17        0.73140591E+20    0.17170574E+16     2.9345152         114.35582         95.647809         5.2138738    
  -2.73000    -1946.2510        0.62001009         13.940948        0.66312092E+11     327037.07        0.68520989E+20    0.17313513E+16     3.1584324         114.68853         90.128801         5.0735179    
  -2.72000    -1945.0811        0.58936756         13.946995        0.62148872E+11     324730.82        0.64219090E+20    0.17549257E+16     3.4158957         113.98110         83.431461         4.8579213    
  -2.71000    -1943.9702        0.55899796         13.952736        0.58315963E+11     322989.66        0.60258504E+20    0.17865894E+16     3.7060939         112.04761         75.652539         4.5631156    
  -2.70000    -1942.9176        0.52918889         13.958176        0.54832726E+11     321895.25        0.56659238E+20    0.18246452E+16     4.0254803         108.71217         66.961792         4.1892026    
  -2.69000    -1941.9219        0.50021810         13.963323        0.51714527E+11     321533.76        0.53437170E+20    0.18668759E+16     4.3669883         103.82715         57.605686         3.7417135    
  -2.68000    -1940.9812        0.47234541         13.968185        0.48972353E+11     321992.41        0.50603652E+20    0.19105918E+16     4.7195007         97.294978         47.903000         3.2327170    
  -2.67000    -1940.0932        0.44580604         13.972774        0.46612587E+11     323354.29        0.48165281E+20    0.19527567E+16     5.0678535         89.091079         38.229845         2.6813284    
  -2.66000    -1939.2551        0.42080547         13.977106        0.44636940E+11     325691.57        0.46123824E+20    0.19902023E+16     5.3936396         79.283832         28.993094         2.1132543    
  -2.65000    -1938.4637        0.39751596         13.981196        0.43042548E+11     329057.43        0.44476322E+20    0.20199156E+16     5.6769410         68.046257         20.593841         1.5591183    
  -2.64000    -1937.7156        0.37607468         13.985062        0.41822237E+11     333477.53        0.43215361E+20    0.20393631E+16     5.8988373         55.654692         13.385719         1.0515674    
  -2.63000    -1937.0072        0.35658328         13.988724        0.40964920E+11     338942.14        0.42329487E+20    0.20467896E+16     6.0442192         42.471836         7.6356334        0.62151153    
  -2.62000    -1936.3345        0.33910895         13.992201        0.40456120E+11     345400.13        0.41803739E+20    0.20414293E+16     6.1042067         28.915345         3.4951989        0.29418725    
  -2.61000    -1935.6936        0.32368651         13.995513        0.40278567E+11     352756.24        0.41620271E+20    0.20235763E+16     6.0774962         15.417242        0.98927780        0.85890799E-01
  -2.60000    -1935.0806        0.31032166         13.998681        0.40412845E+11     360872.40        0.41759022E+20    0.19945016E+16     5.9702715         2.3820859        0.23695461E-01    0.21159329E-02
  -2.59000    -1934.4915        0.29899487         14.001726        0.40838061E+11     369573.38        0.42198402E+20    0.19562395E+16     5.7947678        -9.8479844        0.40925190        0.37462175E-01
  -2.58000    -1933.9223        0.28966578         14.004668        0.41532473E+11     378656.40        0.42915946E+20    0.19112987E+16     5.5669828        -21.015699         1.8954239        0.17720923    
  -2.57000    -1933.3693        0.28227788         14.007526        0.42474091E+11     387903.44        0.43888930E+20    0.18623598E+16     5.3041843        -30.956706         4.2059534        0.40005959    
  -2.56000    -1932.8288        0.27676310         14.010320        0.43641191E+11     397094.81        0.45094906E+20    0.18120145E+16     5.0227804        -39.594922         7.0697892        0.68136391    
  -2.55000    -1932.2972        0.27304627         14.013067        0.45012754E+11     406022.10        0.46512157E+20    0.17625753E+16     4.7368671        -46.929083         10.243553        0.99618021    
  -2.54000    -1931.7711        0.27104911         14.015786        0.46568810E+11     414499.08        0.48120046E+20    0.17159647E+16     4.4575101        -53.014962         13.524554         1.3217086    
  -2.53000    -1931.2472        0.27069378         14.018494        0.48290686E+11     422369.51        0.49899279E+20    0.16736750E+16     4.1926333        -57.947043         16.755478         1.6388886    
  -2.52000    -1930.7226        0.27190576         14.021205        0.50161175E+11     429511.36        0.51832075E+20    0.16367798E+16     3.9473140        -61.842208         19.822963         1.9331598    
  -2.51000    -1930.1941        0.27461632         14.023937        0.52164615E+11     435837.74        0.53902251E+20    0.16059782E+16     3.7242837        -64.826685         22.652416         2.1945312    
  -2.50000    -1929.6590        0.27876434         14.026702        0.54286916E+11     441294.97        0.56095247E+20    0.15816548E+16     3.5244849        -67.026541         25.201110         2.4171651    
  -2.49000    -1929.1145        0.28429770         14.029517        0.56515538E+11     445858.71        0.58398106E+20    0.15639433E+16     3.3475899        -68.561375         27.450977         2.5986853    
  -2.48000    -1928.5580        0.29117429         14.032393        0.58839436E+11     449529.03        0.60799414E+20    0.15527854E+16     3.1924349        -69.540601         29.401959         2.7393806    
  -2.47000    -1927.9869        0.29936260         14.035345        0.61248984E+11     452325.09        0.63289226E+20    0.15479825E+16     3.0573578        -70.061622         31.066345         2.8414276    
  -2.46000    -1927.3987        0.30884209         14.038384        0.63735891E+11     454280.18        0.65858973E+20    0.15492379E+16     2.9404458        -70.209329         32.464192         2.9082053    
  -2.45000    -1926.7910        0.31960326         14.041526        0.66293089E+11     455437.23        0.68501353E+20    0.15561908E+16     2.8397082        -70.056425         33.619798         2.9437375    
  -2.44000    -1926.1611        0.33164750         14.044781        0.68914626E+11     455845.15        0.71210215E+20    0.15684425E+16     2.7531908        -69.664265         34.559100         2.9522698    
  -2.43000    -1925.5068        0.34498677         14.048163        0.71595536E+11     455555.98        0.73980428E+20    0.15855764E+16     2.6790471        -69.083966         35.307857         2.9379733    
  -2.42000    -1924.8253        0.35964324         14.051685        0.74331707E+11     454622.69        0.76807742E+20    0.16071726E+16     2.6155772        -68.357641         35.890469         2.9047537    
  -2.41000    -1924.1142        0.37564889         14.055360        0.77119757E+11     453097.61        0.79688664E+20    0.16328182E+16     2.5612461        -67.519646         36.329285         2.8561448    
  -2.40000    -1923.3708        0.39304532         14.059203        0.79956917E+11     451031.32        0.82620331E+20    0.16621131E+16     2.5146854        -66.597750         36.644267         2.7952612    
  -2.39000    -1922.5923        0.41188360         14.063226        0.82840936E+11     448471.91        0.85600419E+20    0.16946737E+16     2.4746866        -65.614194         36.852885         2.7247915    
  -2.38000    -1921.7760        0.43222445         14.067445        0.85769998E+11     445464.43        0.88627050E+20    0.17301338E+16     2.4401887        -64.586593         36.970135         2.6470142    
  -2.37000    -1920.9188        0.45413858         14.071876        0.88742651E+11     442050.61        0.91698723E+20    0.17681448E+16     2.4102637        -63.528681         37.008627         2.5638276    
  -2.36000    -1920.0175        0.47770728         14.076534        0.91757740E+11     438268.67        0.94814247E+20    0.18083753E+16     2.3841027        -62.450941         36.978695         2.4767858    
  -2.35000    -1919.0691        0.50302311         14.081436        0.94814341E+11     434153.24        0.97972665E+20    0.18505099E+16     2.3610028        -61.361117         36.888538         2.3871383    
  -2.34000    -1918.0698        0.53019084         14.086600        0.97911684E+11     429735.42        0.10117318E+21    0.18942492E+16     2.3403549        -60.264666         36.744380         2.2958714    
  -2.33000    -1917.0161        0.55932844         14.092046        0.10104909E+12     425042.88        0.10441509E+21    0.19393083E+16     2.3216331        -59.165152         36.550662         2.2037488    
  -2.32000    -1915.9041        0.59056826         14.097794        0.10422588E+12     420100.06        0.10769771E+21    0.19854156E+16     2.3043846        -58.064584         36.310240         2.1113513    
  -2.31000    -1914.7294        0.62405826         14.103865        0.10744138E+12     414928.45        0.11102032E+21    0.20323107E+16     2.2882194        -56.963708         36.024583         2.0191116    
  -2.30000    -1913.4876        0.65996326         14.110283        0.11069478E+12     409546.95        0.11438210E+21    0.20797425E+16     2.2728016        -55.862223         35.693940         1.9273448    
  -2.29000    -1912.1739        0.69846623         14.117073        0.11398520E+12     403972.24        0.11778212E+21    0.21274671E+16     2.2578418        -54.758952         35.317471         1.8362738    
  -2.28000    -1910.7830        0.73976930         14.124262        0.11731154E+12     398219.22        0.12121926E+21    0.21752458E+16     2.2430901        -53.651951         34.893350         1.7460496    
  -2.27000    -1909.3093        0.78409475         14.131878        0.12067251E+12     392301.44        0.12469219E+21    0.22228443E+16     2.2283315        -52.538600         34.418841         1.6567691    
  -2.26000    -1907.7467        0.83168545         14.139954        0.12406654E+12     386231.58        0.12819927E+21    0.22700318E+16     2.2133821        -51.415658         33.890373         1.5684899    
  -2.25000    -1906.0887        0.88280505         14.148524        0.12749168E+12     380021.80        0.13173851E+21    0.23165812E+16     2.1980866        -50.279326         33.303635         1.4812438    
  -2.24000    -1904.3281        0.93773761         14.157623        0.13094556E+12     373684.19        0.13530744E+21    0.23622691E+16     2.1823164        -49.125296         32.653673         1.3950483    
  -2.23000    -1902.4573        0.99678666         14.167292        0.13442529E+12     367231.04        0.13890308E+21    0.24068769E+16     2.1659678        -47.948790         31.935019         1.3099171    
  -2.22000    -1900.4680         1.0602735         14.177574        0.13792733E+12     360675.15        0.14252178E+21    0.24501913E+16     2.1489622        -46.744606         31.141837         1.2258681    
  -2.21000    -1898.3514         1.1285347         14.188514        0.14144740E+12     354029.97        0.14615910E+21    0.24920071E+16     2.1312452        -45.507152         30.268101         1.1429310    
  -2.20000    -1896.0977         1.2019189         14.200161        0.14498034E+12     347309.76        0.14980972E+21    0.25321292E+16     2.1127877        -44.230492         29.307822         1.0611535    
  -2.19000    -1893.6968         1.2807821         14.212570        0.14851995E+12     340529.52        0.15346724E+21    0.25703763E+16     2.0935871        -42.908414         28.255345        0.98060750    
  -2.18000    -1891.1377         1.3654827         14.225797        0.15205884E+12     333705.02        0.15712402E+21    0.26065849E+16     2.0736684        -41.534509         27.105708        0.90139411    
  -2.17000    -1888.4089         1.4563745         14.239901        0.15558827E+12     326852.56        0.16077101E+21    0.26406129E+16     2.0530854        -40.102286         25.855087        0.82364877    
  -2.16000    -1885.4979         1.5537995         14.254946        0.15909795E+12     319988.82        0.16439761E+21    0.26723445E+16     2.0319217        -38.605292         24.501303        0.74754490    
  -2.15000    -1882.3918         1.6580796         14.270999        0.16257595E+12     313130.57        0.16799145E+21    0.27016940E+16     2.0102912        -37.037267         23.044382        0.67329633    
  -2.14000    -1879.0771         1.7695074         14.288131        0.16600850E+12     306294.34        0.17153835E+21    0.27286102E+16     1.9883384        -35.392301         21.487149        0.60115802    
  -2.13000    -1875.5396         1.8883376         14.306414        0.16937994E+12     299496.10        0.17502209E+21    0.27530803E+16     1.9662377        -33.665016         19.835837        0.53142526    
  -2.12000    -1871.7650         2.0147782         14.325923        0.17267264E+12     292750.84        0.17842448E+21    0.27751332E+16     1.9441931        -31.850775         18.100662        0.46443085    
  -2.11000    -1867.7381         2.1489835         14.346736        0.17586701E+12     286072.19        0.18172525E+21    0.27948415E+16     1.9224362        -29.945903         16.296341        0.40054022    
  -2.10000    -1863.4441         2.2910492         14.368929        0.17894157E+12     279472.07        0.18490222E+21    0.28123228E+16     1.9012229        -27.947917         14.442455        0.34014402    
  -2.09000    -1858.8675         2.4410101         14.392583        0.18187319E+12     272960.34        0.18793150E+21    0.28277373E+16     1.8808298        -25.855759         12.563602        0.28364766    
  -2.08000    -1853.9931         2.5988422         14.417776        0.18463739E+12     266544.59        0.19078777E+21    0.28412847E+16     1.8615479        -23.669995         10.689241        0.23145773    
  -2.07000    -1848.8059         2.7644682         14.444586        0.18720878E+12     260229.97        0.19344482E+21    0.28531980E+16     1.8436769        -21.392976         8.8531846        0.18396557    
